# wavelength (AA)	 flux density (erg/cm**2/s/AA)	error
4200.1615 2.893e-16 1.273e-17
4201.3596 2.879e-16 1.267e-17
4202.5578 2.820e-16 1.255e-17
4203.7559 2.885e-16 1.259e-17
4204.9541 2.865e-16 1.252e-17
4206.1522 2.912e-16 1.255e-17
4207.3504 2.914e-16 1.250e-17
4208.5485 2.842e-16 1.236e-17
4209.7467 2.989e-16 1.259e-17
4210.9448 2.972e-16 1.254e-17
4212.1430 2.834e-16 1.232e-17
4213.3411 2.911e-16 1.237e-17
4214.5393 2.915e-16 1.233e-17
4215.7374 2.910e-16 1.231e-17
4216.9356 2.993e-16 1.243e-17
4218.1337 2.868e-16 1.223e-17
4219.3319 2.682e-16 1.197e-17
4220.5300 2.799e-16 1.201e-17
4221.7282 2.802e-16 1.204e-17
4222.9263 2.678e-16 1.190e-17
4224.1245 2.829e-16 1.202e-17
4225.3226 2.800e-16 1.192e-17
4226.5208 2.855e-16 1.202e-17
4227.7189 2.757e-16 1.186e-17
4228.9171 2.670e-16 1.174e-17
4230.1152 2.805e-16 1.186e-17
4231.3134 2.645e-16 1.163e-17
4232.5115 2.694e-16 1.168e-17
4233.7097 2.750e-16 1.172e-17
4234.9078 2.862e-16 1.179e-17
4236.1060 2.794e-16 1.170e-17
4237.3041 2.659e-16 1.154e-17
4238.5023 2.748e-16 1.158e-17
4239.7004 2.736e-16 1.157e-17
4240.8986 2.751e-16 1.158e-17
4242.0968 2.634e-16 1.146e-17
4243.2949 2.663e-16 1.144e-17
4244.4931 2.718e-16 1.147e-17
4245.6912 2.822e-16 1.155e-17
4246.8894 2.835e-16 1.155e-17
4248.0875 2.768e-16 1.147e-17
4249.2857 2.707e-16 1.134e-17
4250.4838 2.707e-16 1.135e-17
4251.6820 2.769e-16 1.135e-17
4252.8801 2.767e-16 1.141e-17
4254.0783 2.974e-16 1.149e-17
4255.2764 2.814e-16 1.131e-17
4256.4746 2.832e-16 1.134e-17
4257.6727 2.744e-16 1.121e-17
4258.8709 2.773e-16 1.122e-17
4260.0690 2.760e-16 1.116e-17
4261.2672 2.687e-16 1.109e-17
4262.4653 2.591e-16 1.095e-17
4263.6635 2.677e-16 1.101e-17
4264.8616 2.566e-16 1.087e-17
4266.0598 2.571e-16 1.088e-17
4267.2579 2.547e-16 1.076e-17
4268.4561 2.529e-16 1.077e-17
4269.6542 2.627e-16 1.084e-17
4270.8524 2.592e-16 1.076e-17
4272.0505 2.516e-16 1.073e-17
4273.2487 2.740e-16 1.091e-17
4274.4468 2.593e-16 1.070e-17
4275.6450 2.488e-16 1.061e-17
4276.8431 2.663e-16 1.075e-17
4278.0413 2.735e-16 1.085e-17
4279.2394 2.796e-16 1.091e-17
4280.4376 2.705e-16 1.076e-17
4281.6357 2.693e-16 1.073e-17
4282.8339 2.637e-16 1.063e-17
4284.0320 2.612e-16 1.057e-17
4285.2302 2.576e-16 1.051e-17
4286.4283 2.738e-16 1.064e-17
4287.6265 2.647e-16 1.057e-17
4288.8246 2.549e-16 1.041e-17
4290.0228 2.467e-16 1.029e-17
4291.2209 2.515e-16 1.037e-17
4292.4191 2.468e-16 1.030e-17
4293.6172 2.559e-16 1.037e-17
4294.8154 2.513e-16 1.030e-17
4296.0135 2.608e-16 1.036e-17
4297.2117 2.388e-16 1.013e-17
4298.4098 2.538e-16 1.028e-17
4299.6080 2.586e-16 1.032e-17
4300.8061 2.546e-16 1.022e-17
4302.0043 2.446e-16 1.006e-17
4303.2024 2.424e-16 1.004e-17
4304.4006 2.415e-16 9.997e-18
4305.5987 2.539e-16 1.014e-17
4306.7969 2.604e-16 1.019e-17
4307.9950 2.589e-16 1.017e-17
4309.1932 2.511e-16 1.007e-17
4310.3913 2.540e-16 1.008e-17
4311.5895 2.544e-16 1.005e-17
4312.7876 2.437e-16 9.902e-18
4313.9858 2.376e-16 9.827e-18
4315.1839 2.500e-16 9.989e-18
4316.3821 2.511e-16 9.972e-18
4317.5802 2.482e-16 9.916e-18
4318.7784 2.518e-16 9.932e-18
4319.9765 2.609e-16 1.004e-17
4321.1747 2.599e-16 1.003e-17
4322.3728 2.576e-16 9.972e-18
4323.5710 2.524e-16 9.865e-18
4324.7691 2.386e-16 9.696e-18
4325.9673 2.449e-16 9.738e-18
4327.1654 2.554e-16 9.860e-18
4328.3636 2.541e-16 9.784e-18
4329.5617 2.500e-16 9.696e-18
4330.7599 2.375e-16 9.573e-18
4331.9580 2.404e-16 9.643e-18
4333.1562 2.406e-16 9.613e-18
4334.3543 2.476e-16 9.662e-18
4335.5525 2.519e-16 9.694e-18
4336.7506 2.451e-16 9.620e-18
4337.9488 2.382e-16 9.534e-18
4339.1469 2.554e-16 9.711e-18
4340.3451 2.442e-16 9.536e-18
4341.5432 2.413e-16 9.498e-18
4342.7414 2.320e-16 9.399e-18
4343.9395 2.399e-16 9.446e-18
4345.1377 2.423e-16 9.459e-18
4346.3358 2.334e-16 9.378e-18
4347.5340 2.496e-16 9.517e-18
4348.7321 2.556e-16 9.576e-18
4349.9303 2.536e-16 9.548e-18
4351.1284 2.412e-16 9.385e-18
4352.3266 2.596e-16 9.559e-18
4353.5247 2.570e-16 9.532e-18
4354.7229 2.528e-16 9.496e-18
4355.9210 2.486e-16 9.461e-18
4357.1192 2.554e-16 9.545e-18
4358.3173 2.499e-16 9.444e-18
4359.5155 2.407e-16 9.319e-18
4360.7136 2.451e-16 9.350e-18
4361.9118 2.463e-16 9.332e-18
4363.1099 2.450e-16 9.330e-18
4364.3081 2.573e-16 9.431e-18
4365.5062 2.501e-16 9.323e-18
4366.7044 2.462e-16 9.224e-18
4367.9025 2.472e-16 9.261e-18
4369.1007 2.533e-16 9.318e-18
4370.2988 2.457e-16 9.223e-18
4371.4970 2.593e-16 9.366e-18
4372.6951 2.492e-16 9.214e-18
4373.8933 2.509e-16 9.238e-18
4375.0914 2.488e-16 9.156e-18
4376.2896 2.483e-16 9.135e-18
4377.4877 2.470e-16 9.118e-18
4378.6859 2.425e-16 9.049e-18
4379.8840 2.541e-16 9.170e-18
4381.0822 2.514e-16 9.153e-18
4382.2803 2.338e-16 8.914e-18
4383.4785 2.474e-16 9.039e-18
4384.6766 2.386e-16 8.935e-18
4385.8748 2.398e-16 8.927e-18
4387.0729 2.391e-16 8.933e-18
4388.2711 2.338e-16 8.827e-18
4389.4692 2.520e-16 9.029e-18
4390.6674 2.509e-16 9.017e-18
4391.8655 2.642e-16 9.132e-18
4393.0637 2.478e-16 8.949e-18
4394.2618 2.405e-16 8.839e-18
4395.4600 2.503e-16 8.917e-18
4396.6581 2.571e-16 8.984e-18
4397.8563 2.428e-16 8.824e-18
4399.0544 2.378e-16 8.737e-18
4400.2526 2.374e-16 8.730e-18
4401.4508 2.511e-16 8.874e-18
4402.6489 2.427e-16 8.782e-18
4403.8471 2.498e-16 8.839e-18
4405.0452 2.571e-16 8.911e-18
4406.2434 2.493e-16 8.850e-18
4407.4415 2.416e-16 8.740e-18
4408.6397 2.447e-16 8.770e-18
4409.8378 2.462e-16 8.770e-18
4411.0360 2.339e-16 8.632e-18
4412.2341 2.366e-16 8.657e-18
4413.4323 2.376e-16 8.597e-18
4414.6304 2.385e-16 8.596e-18
4415.8286 2.539e-16 8.790e-18
4417.0267 2.467e-16 8.708e-18
4418.2249 2.526e-16 8.742e-18
4419.4230 2.446e-16 8.663e-18
4420.6212 2.468e-16 8.698e-18
4421.8193 2.422e-16 8.594e-18
4423.0175 2.418e-16 8.559e-18
4424.2156 2.459e-16 8.586e-18
4425.4138 2.503e-16 8.645e-18
4426.6119 2.448e-16 8.564e-18
4427.8101 2.369e-16 8.486e-18
4429.0082 2.319e-16 8.413e-18
4430.2064 2.494e-16 8.560e-18
4431.4045 2.508e-16 8.577e-18
4432.6027 2.445e-16 8.489e-18
4433.8008 2.415e-16 8.432e-18
4434.9990 2.414e-16 8.402e-18
4436.1971 2.488e-16 8.477e-18
4437.3953 2.394e-16 8.374e-18
4438.5934 2.415e-16 8.409e-18
4439.7916 2.486e-16 8.463e-18
4440.9897 2.389e-16 8.326e-18
4442.1879 2.483e-16 8.400e-18
4443.3860 2.457e-16 8.388e-18
4444.5842 2.526e-16 8.427e-18
4445.7823 2.483e-16 8.393e-18
4446.9805 2.531e-16 8.423e-18
4448.1786 2.479e-16 8.357e-18
4449.3768 2.413e-16 8.281e-18
4450.5749 2.412e-16 8.266e-18
4451.7731 2.426e-16 8.274e-18
4452.9712 2.406e-16 8.236e-18
4454.1694 2.515e-16 8.309e-18
4455.3675 2.491e-16 8.277e-18
4456.5657 2.367e-16 8.134e-18
4457.7638 2.322e-16 8.064e-18
4458.9620 2.410e-16 8.146e-18
4460.1601 2.403e-16 8.148e-18
4461.3583 2.461e-16 8.181e-18
4462.5564 2.485e-16 8.203e-18
4463.7546 2.505e-16 8.213e-18
4464.9527 2.575e-16 8.239e-18
4466.1509 2.410e-16 8.075e-18
4467.3490 2.521e-16 8.179e-18
4468.5472 2.542e-16 8.190e-18
4469.7453 2.537e-16 8.176e-18
4470.9435 2.419e-16 8.043e-18
4472.1416 2.396e-16 8.029e-18
4473.3398 2.444e-16 8.054e-18
4474.5379 2.500e-16 8.108e-18
4475.7361 2.528e-16 8.142e-18
4476.9342 2.425e-16 8.008e-18
4478.1324 2.463e-16 8.038e-18
4479.3305 2.431e-16 8.002e-18
4480.5287 2.387e-16 7.925e-18
4481.7268 2.433e-16 7.949e-18
4482.9250 2.464e-16 8.000e-18
4484.1231 2.354e-16 7.856e-18
4485.3213 2.509e-16 7.996e-18
4486.5194 2.369e-16 7.841e-18
4487.7176 2.429e-16 7.899e-18
4488.9157 2.441e-16 7.889e-18
4490.1139 2.502e-16 7.944e-18
4491.3120 2.369e-16 7.827e-18
4492.5102 2.479e-16 7.921e-18
4493.7083 2.399e-16 7.809e-18
4494.9065 2.389e-16 7.801e-18
4496.1046 2.383e-16 7.788e-18
4497.3028 2.400e-16 7.788e-18
4498.5009 2.397e-16 7.772e-18
4499.6991 2.423e-16 7.774e-18
4500.8972 2.362e-16 7.732e-18
4502.0954 2.375e-16 7.734e-18
4503.2935 2.496e-16 7.823e-18
4504.4917 2.381e-16 7.689e-18
4505.6898 2.426e-16 7.737e-18
4506.8880 2.494e-16 7.799e-18
4508.0861 2.400e-16 7.685e-18
4509.2843 2.384e-16 7.700e-18
4510.4824 2.441e-16 7.737e-18
4511.6806 2.452e-16 7.711e-18
4512.8787 2.481e-16 7.723e-18
4514.0769 2.495e-16 7.732e-18
4515.2750 2.441e-16 7.680e-18
4516.4732 2.364e-16 7.595e-18
4517.6713 2.394e-16 7.593e-18
4518.8695 2.455e-16 7.661e-18
4520.0676 2.455e-16 7.668e-18
4521.2658 2.451e-16 7.649e-18
4522.4639 2.322e-16 7.503e-18
4523.6621 2.295e-16 7.459e-18
4524.8602 2.405e-16 7.576e-18
4526.0584 2.273e-16 7.423e-18
4527.2565 2.387e-16 7.510e-18
4528.4547 2.363e-16 7.474e-18
4529.6528 2.387e-16 7.489e-18
4530.8510 2.395e-16 7.491e-18
4532.0491 2.458e-16 7.540e-18
4533.2473 2.414e-16 7.523e-18
4534.4454 2.323e-16 7.423e-18
4535.6436 2.396e-16 7.470e-18
4536.8417 2.457e-16 7.517e-18
4538.0399 2.387e-16 7.441e-18
4539.2380 2.276e-16 7.320e-18
4540.4362 2.416e-16 7.454e-18
4541.6343 2.453e-16 7.475e-18
4542.8325 2.468e-16 7.446e-18
4544.0306 2.295e-16 7.292e-18
4545.2288 2.334e-16 7.322e-18
4546.4269 2.427e-16 7.405e-18
4547.6251 2.342e-16 7.314e-18
4548.8232 2.367e-16 7.332e-18
4550.0214 2.321e-16 7.262e-18
4551.2195 2.344e-16 7.284e-18
4552.4177 2.345e-16 7.273e-18
4553.6158 2.394e-16 7.322e-18
4554.8140 2.429e-16 7.336e-18
4556.0121 2.378e-16 7.274e-18
4557.2103 2.372e-16 7.267e-18
4558.4084 2.367e-16 7.247e-18
4559.6066 2.332e-16 7.217e-18
4560.8048 2.370e-16 7.249e-18
4562.0029 2.385e-16 7.234e-18
4563.2011 2.358e-16 7.195e-18
4564.3992 2.338e-16 7.167e-18
4565.5974 2.251e-16 7.085e-18
4566.7955 2.281e-16 7.091e-18
4567.9937 2.313e-16 7.117e-18
4569.1918 2.368e-16 7.162e-18
4570.3900 2.389e-16 7.162e-18
4571.5881 2.338e-16 7.110e-18
4572.7863 2.264e-16 7.014e-18
4573.9844 2.379e-16 7.092e-18
4575.1826 2.398e-16 7.116e-18
4576.3807 2.390e-16 7.116e-18
4577.5789 2.362e-16 7.095e-18
4578.7770 2.386e-16 7.117e-18
4579.9752 2.353e-16 7.056e-18
4581.1733 2.363e-16 7.065e-18
4582.3715 2.300e-16 6.982e-18
4583.5696 2.295e-16 6.970e-18
4584.7678 2.418e-16 7.079e-18
4585.9659 2.411e-16 7.054e-18
4587.1641 2.372e-16 7.019e-18
4588.3622 2.329e-16 6.960e-18
4589.5604 2.338e-16 6.965e-18
4590.7585 2.279e-16 6.898e-18
4591.9567 2.389e-16 6.991e-18
4593.1548 2.371e-16 6.974e-18
4594.3530 2.471e-16 7.065e-18
4595.5511 2.421e-16 6.995e-18
4596.7493 2.414e-16 6.999e-18
4597.9474 2.335e-16 6.920e-18
4599.1456 2.364e-16 6.917e-18
4600.3437 2.335e-16 6.880e-18
4601.5419 2.354e-16 6.890e-18
4602.7400 2.345e-16 6.871e-18
4603.9382 2.354e-16 6.878e-18
4605.1363 2.379e-16 6.879e-18
4606.3345 2.320e-16 6.837e-18
4607.5326 2.266e-16 6.768e-18
4608.7308 2.300e-16 6.779e-18
4609.9289 2.389e-16 6.865e-18
4611.1271 2.389e-16 6.859e-18
4612.3252 2.366e-16 6.831e-18
4613.5234 2.261e-16 6.722e-18
4614.7215 2.266e-16 6.705e-18
4615.9197 2.359e-16 6.812e-18
4617.1178 2.352e-16 6.788e-18
4618.3160 2.346e-16 6.766e-18
4619.5141 2.312e-16 6.713e-18
4620.7123 2.362e-16 6.751e-18
4621.9104 2.330e-16 6.718e-18
4623.1086 2.293e-16 6.677e-18
4624.3067 2.315e-16 6.700e-18
4625.5049 2.420e-16 6.803e-18
4626.7030 2.430e-16 6.796e-18
4627.9012 2.433e-16 6.780e-18
4629.0993 2.452e-16 6.794e-18
4630.2975 2.385e-16 6.714e-18
4631.4956 2.369e-16 6.703e-18
4632.6938 2.385e-16 6.706e-18
4633.8919 2.323e-16 6.636e-18
4635.0901 2.474e-16 6.755e-18
4636.2882 2.400e-16 6.693e-18
4637.4864 2.341e-16 6.640e-18
4638.6845 2.336e-16 6.618e-18
4639.8827 2.343e-16 6.627e-18
4641.0808 2.282e-16 6.552e-18
4642.2790 2.294e-16 6.565e-18
4643.4771 2.330e-16 6.590e-18
4644.6753 2.311e-16 6.541e-18
4645.8734 2.166e-16 6.422e-18
4647.0716 2.331e-16 6.579e-18
4648.2697 2.485e-16 6.694e-18
4649.4679 2.397e-16 6.611e-18
4650.6660 2.264e-16 6.480e-18
4651.8642 2.436e-16 6.628e-18
4653.0623 2.403e-16 6.592e-18
4654.2605 2.380e-16 6.567e-18
4655.4586 2.324e-16 6.497e-18
4656.6568 2.347e-16 6.501e-18
4657.8549 2.376e-16 6.541e-18
4659.0531 2.347e-16 6.505e-18
4660.2512 2.265e-16 6.429e-18
4661.4494 2.292e-16 6.457e-18
4662.6475 2.382e-16 6.548e-18
4663.8457 2.304e-16 6.465e-18
4665.0438 2.284e-16 6.432e-18
4666.2420 2.266e-16 6.390e-18
4667.4401 2.203e-16 6.314e-18
4668.6383 2.345e-16 6.441e-18
4669.8364 2.292e-16 6.387e-18
4671.0346 2.288e-16 6.370e-18
4672.2327 2.234e-16 6.307e-18
4673.4309 2.243e-16 6.314e-18
4674.6290 2.263e-16 6.331e-18
4675.8272 2.162e-16 6.218e-18
4677.0253 2.231e-16 6.291e-18
4678.2235 2.289e-16 6.331e-18
4679.4216 2.284e-16 6.304e-18
4680.6198 2.315e-16 6.325e-18
4681.8179 2.195e-16 6.218e-18
4683.0161 2.219e-16 6.248e-18
4684.2142 2.231e-16 6.246e-18
4685.4124 2.219e-16 6.218e-18
4686.6105 2.301e-16 6.287e-18
4687.8087 2.390e-16 6.357e-18
4689.0068 2.413e-16 6.382e-18
4690.2050 2.395e-16 6.351e-18
4691.4031 2.363e-16 6.318e-18
4692.6013 2.289e-16 6.254e-18
4693.7994 2.292e-16 6.246e-18
4694.9976 2.214e-16 6.168e-18
4696.1957 2.299e-16 6.226e-18
4697.3939 2.300e-16 6.216e-18
4698.5920 2.348e-16 6.265e-18
4699.7902 2.272e-16 6.173e-18
4700.9883 2.258e-16 6.172e-18
4702.1865 2.234e-16 6.140e-18
4703.3846 2.159e-16 6.056e-18
4704.5828 2.219e-16 6.112e-18
4705.7809 2.219e-16 6.099e-18
4706.9791 2.182e-16 6.068e-18
4708.1772 2.175e-16 6.046e-18
4709.3754 2.297e-16 6.154e-18
4710.5735 2.253e-16 6.117e-18
4711.7717 2.226e-16 6.085e-18
4712.9698 2.199e-16 6.044e-18
4714.1680 2.210e-16 6.047e-18
4715.3661 2.261e-16 6.090e-18
4716.5643 2.309e-16 6.122e-18
4717.7624 2.254e-16 6.063e-18
4718.9606 2.224e-16 6.029e-18
4720.1587 2.235e-16 6.037e-18
4721.3569 2.218e-16 6.033e-18
4722.5551 2.135e-16 5.948e-18
4723.7532 2.253e-16 6.039e-18
4724.9514 2.215e-16 5.991e-18
4726.1495 2.128e-16 5.903e-18
4727.3477 2.156e-16 5.924e-18
4728.5458 2.190e-16 5.954e-18
4729.7440 2.294e-16 6.048e-18
4730.9421 2.246e-16 5.990e-18
4732.1403 2.258e-16 5.980e-18
4733.3384 2.244e-16 5.956e-18
4734.5366 2.202e-16 5.926e-18
4735.7347 2.251e-16 5.962e-18
4736.9329 2.219e-16 5.931e-18
4738.1310 2.206e-16 5.924e-18
4739.3292 2.258e-16 5.949e-18
4740.5273 2.242e-16 5.947e-18
4741.7255 2.157e-16 5.863e-18
4742.9236 2.255e-16 5.935e-18
4744.1218 2.169e-16 5.839e-18
4745.3199 2.174e-16 5.842e-18
4746.5181 2.320e-16 5.958e-18
4747.7162 2.283e-16 5.908e-18
4748.9144 2.288e-16 5.934e-18
4750.1125 2.200e-16 5.842e-18
4751.3107 2.195e-16 5.824e-18
4752.5088 2.244e-16 5.859e-18
4753.7070 2.223e-16 5.831e-18
4754.9051 2.197e-16 5.815e-18
4756.1033 2.217e-16 5.823e-18
4757.3014 2.205e-16 5.814e-18
4758.4996 2.178e-16 5.790e-18
4759.6977 2.260e-16 5.849e-18
4760.8959 2.278e-16 5.862e-18
4762.0940 2.212e-16 5.792e-18
4763.2922 2.282e-16 5.849e-18
4764.4903 2.243e-16 5.812e-18
4765.6885 2.282e-16 5.823e-18
4766.8866 2.288e-16 5.830e-18
4768.0848 2.219e-16 5.767e-18
4769.2829 2.247e-16 5.785e-18
4770.4811 2.254e-16 5.780e-18
4771.6792 2.289e-16 5.805e-18
4772.8774 2.175e-16 5.695e-18
4774.0755 2.308e-16 5.817e-18
4775.2737 2.325e-16 5.821e-18
4776.4718 2.227e-16 5.738e-18
4777.6700 2.247e-16 5.738e-18
4778.8681 2.242e-16 5.714e-18
4780.0663 2.265e-16 5.743e-18
4781.2644 2.240e-16 5.717e-18
4782.4626 2.264e-16 5.728e-18
4783.6607 2.226e-16 5.684e-18
4784.8589 2.160e-16 5.624e-18
4786.0570 2.156e-16 5.620e-18
4787.2552 2.176e-16 5.624e-18
4788.4533 2.227e-16 5.663e-18
4789.6515 2.252e-16 5.684e-18
4790.8496 2.286e-16 5.713e-18
4792.0478 2.271e-16 5.689e-18
4793.2459 2.306e-16 5.718e-18
4794.4441 2.289e-16 5.697e-18
4795.6422 2.234e-16 5.643e-18
4796.8404 2.222e-16 5.639e-18
4798.0385 2.212e-16 5.636e-18
4799.2367 2.272e-16 5.679e-18
4800.4348 2.293e-16 5.685e-18
4801.6330 2.294e-16 5.686e-18
4802.8311 2.214e-16 5.598e-18
4804.0293 2.280e-16 5.649e-18
4805.2274 2.249e-16 5.618e-18
4806.4256 2.218e-16 5.581e-18
4807.6237 2.177e-16 5.542e-18
4808.8219 2.229e-16 5.584e-18
4810.0200 2.226e-16 5.568e-18
4811.2182 2.272e-16 5.611e-18
4812.4163 2.273e-16 5.598e-18
4813.6145 2.272e-16 5.598e-18
4814.8126 2.242e-16 5.567e-18
4816.0108 2.286e-16 5.598e-18
4817.2089 2.275e-16 5.603e-18
4818.4071 2.250e-16 5.571e-18
4819.6052 2.235e-16 5.558e-18
4820.8034 2.210e-16 5.547e-18
4822.0015 2.219e-16 5.544e-18
4823.1997 2.291e-16 5.591e-18
4824.3978 2.299e-16 5.588e-18
4825.5960 2.338e-16 5.615e-18
4826.7941 2.282e-16 5.559e-18
4827.9923 2.328e-16 5.578e-18
4829.1904 2.298e-16 5.553e-18
4830.3886 2.212e-16 5.473e-18
4831.5867 2.238e-16 5.496e-18
4832.7849 2.235e-16 5.489e-18
4833.9830 2.272e-16 5.516e-18
4835.1812 2.231e-16 5.481e-18
4836.3793 2.171e-16 5.425e-18
4837.5775 2.253e-16 5.479e-18
4838.7756 2.283e-16 5.495e-18
4839.9738 2.232e-16 5.461e-18
4841.1719 2.275e-16 5.490e-18
4842.3701 2.172e-16 5.392e-18
4843.5682 2.216e-16 5.431e-18
4844.7664 2.207e-16 5.412e-18
4845.9645 2.223e-16 5.422e-18
4847.1627 2.230e-16 5.416e-18
4848.3608 2.244e-16 5.421e-18
4849.5590 2.160e-16 5.339e-18
4850.7571 2.125e-16 5.294e-18
4851.9553 2.229e-16 5.384e-18
4853.1534 2.187e-16 5.328e-18
4854.3516 2.280e-16 5.413e-18
4855.5497 2.256e-16 5.381e-18
4856.7479 2.216e-16 5.344e-18
4857.9460 2.308e-16 5.426e-18
4859.1442 2.193e-16 5.310e-18
4860.3423 2.252e-16 5.354e-18
4861.5405 2.292e-16 5.404e-18
4862.7386 2.278e-16 5.386e-18
4863.9368 2.226e-16 5.331e-18
4865.1349 2.288e-16 5.380e-18
4866.3331 2.187e-16 5.288e-18
4867.5312 2.190e-16 5.277e-18
4868.7294 2.287e-16 5.357e-18
4869.9275 2.277e-16 5.345e-18
4871.1257 2.284e-16 5.348e-18
4872.3238 2.301e-16 5.361e-18
4873.5220 2.216e-16 5.279e-18
4874.7201 2.226e-16 5.283e-18
4875.9183 2.246e-16 5.300e-18
4877.1164 2.261e-16 5.297e-18
4878.3146 2.249e-16 5.276e-18
4879.5127 2.206e-16 5.250e-18
4880.7109 2.214e-16 5.246e-18
4881.9091 2.242e-16 5.270e-18
4883.1072 2.263e-16 5.272e-18
4884.3054 2.189e-16 5.214e-18
4885.5035 2.257e-16 5.272e-18
4886.7017 2.223e-16 5.239e-18
4887.8998 2.137e-16 5.169e-18
4889.0980 2.085e-16 5.114e-18
4890.2961 2.118e-16 5.136e-18
4891.4943 2.167e-16 5.174e-18
4892.6924 2.203e-16 5.192e-18
4893.8906 2.145e-16 5.142e-18
4895.0887 2.176e-16 5.166e-18
4896.2869 2.057e-16 5.071e-18
4897.4850 2.136e-16 5.135e-18
4898.6832 2.162e-16 5.141e-18
4899.8813 2.141e-16 5.121e-18
4901.0795 2.155e-16 5.126e-18
4902.2776 2.201e-16 5.160e-18
4903.4758 2.136e-16 5.087e-18
4904.6739 2.176e-16 5.131e-18
4905.8721 2.177e-16 5.122e-18
4907.0702 2.147e-16 5.093e-18
4908.2684 2.159e-16 5.095e-18
4909.4665 2.217e-16 5.131e-18
4910.6647 2.151e-16 5.084e-18
4911.8628 2.201e-16 5.121e-18
4913.0610 2.244e-16 5.150e-18
4914.2591 2.214e-16 5.125e-18
4915.4573 2.189e-16 5.094e-18
4916.6554 2.170e-16 5.074e-18
4917.8536 2.224e-16 5.112e-18
4919.0517 2.225e-16 5.117e-18
4920.2499 2.221e-16 5.092e-18
4921.4480 2.236e-16 5.088e-18
4922.6462 2.218e-16 5.076e-18
4923.8443 2.182e-16 5.051e-18
4925.0425 2.230e-16 5.094e-18
4926.2406 2.215e-16 5.076e-18
4927.4388 2.187e-16 5.047e-18
4928.6369 2.148e-16 5.022e-18
4929.8351 2.196e-16 5.052e-18
4931.0332 2.188e-16 5.035e-18
4932.2314 2.205e-16 5.050e-18
4933.4295 2.132e-16 4.980e-18
4934.6277 2.124e-16 4.964e-18
4935.8258 2.176e-16 5.013e-18
4937.0240 2.215e-16 5.036e-18
4938.2221 2.166e-16 4.998e-18
4939.4203 2.126e-16 4.972e-18
4940.6184 2.161e-16 5.001e-18
4941.8166 2.167e-16 4.996e-18
4943.0147 2.138e-16 4.963e-18
4944.2129 2.159e-16 4.984e-18
4945.4110 2.092e-16 4.916e-18
4946.6092 2.083e-16 4.901e-18
4947.8073 2.194e-16 4.988e-18
4949.0055 2.121e-16 4.916e-18
4950.2036 2.211e-16 4.997e-18
4951.4018 2.182e-16 4.973e-18
4952.5999 2.112e-16 4.900e-18
4953.7981 2.176e-16 4.951e-18
4954.9962 2.106e-16 4.886e-18
4956.1944 2.236e-16 4.986e-18
4957.3925 2.217e-16 4.973e-18
4958.5907 2.241e-16 4.977e-18
4959.7888 2.142e-16 4.892e-18
4960.9870 2.224e-16 4.978e-18
4962.1851 2.226e-16 4.959e-18
4963.3833 2.204e-16 4.948e-18
4964.5814 2.163e-16 4.902e-18
4965.7796 2.182e-16 4.917e-18
4966.9777 2.145e-16 4.881e-18
4968.1759 2.152e-16 4.877e-18
4969.3740 2.074e-16 4.826e-18
4970.5722 2.091e-16 4.829e-18
4971.7703 2.169e-16 4.893e-18
4972.9685 2.193e-16 4.894e-18
4974.1666 2.185e-16 4.893e-18
4975.3648 2.120e-16 4.833e-18
4976.5629 2.159e-16 4.850e-18
4977.7611 2.166e-16 4.851e-18
4978.9592 2.132e-16 4.824e-18
4980.1574 2.158e-16 4.844e-18
4981.3555 2.233e-16 4.903e-18
4982.5537 2.116e-16 4.801e-18
4983.7518 2.163e-16 4.840e-18
4984.9500 2.089e-16 4.769e-18
4986.1481 2.035e-16 4.716e-18
4987.3463 2.079e-16 4.764e-18
4988.5444 2.120e-16 4.803e-18
4989.7426 2.067e-16 4.743e-18
4990.9407 2.074e-16 4.748e-18
4992.1389 2.140e-16 4.798e-18
4993.3370 2.156e-16 4.796e-18
4994.5352 2.115e-16 4.762e-18
4995.7333 2.101e-16 4.753e-18
4996.9315 2.127e-16 4.769e-18
4998.1296 2.175e-16 4.806e-18
4999.3278 2.110e-16 4.748e-18
5000.5259 2.012e-16 4.662e-18
5001.7241 2.115e-16 4.735e-18
5002.9222 2.145e-16 4.751e-18
5004.1204 2.119e-16 4.744e-18
5005.3185 2.068e-16 4.699e-18
5006.5167 2.038e-16 4.664e-18
5007.7148 2.047e-16 4.666e-18
5008.9130 2.012e-16 4.621e-18
5010.1111 2.088e-16 4.684e-18
5011.3093 2.087e-16 4.690e-18
5012.5074 2.068e-16 4.662e-18
5013.7056 2.046e-16 4.639e-18
5014.9037 2.082e-16 4.671e-18
5016.1019 2.077e-16 4.664e-18
5017.3000 2.041e-16 4.621e-18
5018.4982 2.092e-16 4.660e-18
5019.6963 2.140e-16 4.695e-18
5020.8945 2.144e-16 4.697e-18
5022.0926 2.103e-16 4.674e-18
5023.2908 2.037e-16 4.619e-18
5024.4889 2.032e-16 4.618e-18
5025.6871 2.073e-16 4.633e-18
5026.8852 2.022e-16 4.588e-18
5028.0834 2.086e-16 4.642e-18
5029.2815 2.113e-16 4.661e-18
5030.4797 2.048e-16 4.611e-18
5031.6778 2.059e-16 4.612e-18
5032.8760 2.065e-16 4.618e-18
5034.0741 2.044e-16 4.601e-18
5035.2723 2.011e-16 4.563e-18
5036.4704 2.020e-16 4.557e-18
5037.6686 2.015e-16 4.551e-18
5038.8667 2.034e-16 4.556e-18
5040.0649 2.063e-16 4.578e-18
5041.2631 2.109e-16 4.619e-18
5042.4612 2.148e-16 4.632e-18
5043.6594 2.084e-16 4.580e-18
5044.8575 2.081e-16 4.582e-18
5046.0557 2.063e-16 4.561e-18
5047.2538 2.076e-16 4.574e-18
5048.4520 2.038e-16 4.543e-18
5049.6501 2.040e-16 4.543e-18
5050.8483 2.028e-16 4.531e-18
5052.0464 2.082e-16 4.557e-18
5053.2446 2.058e-16 4.546e-18
5054.4427 2.089e-16 4.564e-18
5055.6409 2.074e-16 4.535e-18
5056.8390 2.000e-16 4.494e-18
5058.0372 2.056e-16 4.541e-18
5059.2353 2.104e-16 4.566e-18
5060.4335 2.059e-16 4.520e-18
5061.6316 2.095e-16 4.547e-18
5062.8298 2.101e-16 4.557e-18
5064.0279 2.084e-16 4.534e-18
5065.2261 2.067e-16 4.518e-18
5066.4242 2.041e-16 4.500e-18
5067.6224 1.994e-16 4.458e-18
5068.8205 2.017e-16 4.483e-18
5070.0187 2.058e-16 4.506e-18
5071.2168 2.008e-16 4.465e-18
5072.4150 2.026e-16 4.473e-18
5073.6131 2.077e-16 4.514e-18
5074.8113 2.003e-16 4.443e-18
5076.0094 2.000e-16 4.446e-18
5077.2076 1.990e-16 4.445e-18
5078.4057 1.987e-16 4.431e-18
5079.6039 1.998e-16 4.436e-18
5080.8020 2.030e-16 4.462e-18
5082.0002 1.983e-16 4.423e-18
5083.1983 1.998e-16 4.418e-18
5084.3965 2.030e-16 4.456e-18
5085.5946 2.011e-16 4.447e-18
5086.7928 2.028e-16 4.452e-18
5087.9909 2.056e-16 4.471e-18
5089.1891 1.971e-16 4.389e-18
5090.3872 2.018e-16 4.426e-18
5091.5854 1.988e-16 4.405e-18
5092.7835 1.975e-16 4.391e-18
5093.9817 1.985e-16 4.400e-18
5095.1798 1.935e-16 4.345e-18
5096.3780 1.963e-16 4.367e-18
5097.5761 1.990e-16 4.394e-18
5098.7743 1.937e-16 4.349e-18
5099.9724 1.987e-16 4.381e-18
5101.1706 2.012e-16 4.386e-18
5102.3687 2.004e-16 4.394e-18
5103.5669 1.953e-16 4.355e-18
5104.7650 2.017e-16 4.407e-18
5105.9632 1.989e-16 4.377e-18
5107.1613 1.957e-16 4.340e-18
5108.3595 1.993e-16 4.366e-18
5109.5576 1.967e-16 4.348e-18
5110.7558 1.975e-16 4.351e-18
5111.9539 2.003e-16 4.367e-18
5113.1521 1.970e-16 4.340e-18
5114.3502 1.943e-16 4.314e-18
5115.5484 1.945e-16 4.319e-18
5116.7465 1.949e-16 4.323e-18
5117.9447 1.932e-16 4.316e-18
5119.1428 1.917e-16 4.300e-18
5120.3410 1.954e-16 4.323e-18
5121.5391 1.977e-16 4.341e-18
5122.7373 2.006e-16 4.357e-18
5123.9354 2.015e-16 4.370e-18
5125.1336 1.991e-16 4.331e-18
5126.3317 1.882e-16 4.238e-18
5127.5299 1.956e-16 4.307e-18
5128.7280 2.029e-16 4.360e-18
5129.9262 1.970e-16 4.305e-18
5131.1243 1.967e-16 4.310e-18
5132.3225 1.913e-16 4.275e-18
5133.5206 1.917e-16 4.272e-18
5134.7188 1.978e-16 4.322e-18
5135.9169 1.950e-16 4.299e-18
5137.1151 1.923e-16 4.269e-18
5138.3132 1.932e-16 4.271e-18
5139.5114 1.935e-16 4.273e-18
5140.7095 1.953e-16 4.281e-18
5141.9077 1.918e-16 4.251e-18
5143.1058 1.935e-16 4.271e-18
5144.3040 2.032e-16 4.344e-18
5145.5021 1.963e-16 4.289e-18
5146.7003 1.910e-16 4.244e-18
5147.8984 1.902e-16 4.229e-18
5149.0966 1.919e-16 4.238e-18
5150.2947 1.924e-16 4.240e-18
5151.4929 1.917e-16 4.227e-18
5152.6910 1.929e-16 4.239e-18
5153.8892 1.931e-16 4.251e-18
5155.0873 1.947e-16 4.265e-18
5156.2855 1.934e-16 4.243e-18
5157.4836 1.924e-16 4.223e-18
5158.6818 1.895e-16 4.210e-18
5159.8799 1.946e-16 4.249e-18
5161.0781 1.978e-16 4.261e-18
5162.2762 1.934e-16 4.233e-18
5163.4744 1.890e-16 4.193e-18
5164.6725 1.866e-16 4.160e-18
5165.8707 1.945e-16 4.217e-18
5167.0688 1.910e-16 4.190e-18
5168.2670 1.867e-16 4.159e-18
5169.4651 1.858e-16 4.149e-18
5170.6633 1.873e-16 4.155e-18
5171.8614 1.896e-16 4.162e-18
5173.0596 1.888e-16 4.150e-18
5174.2577 1.864e-16 4.134e-18
5175.4559 1.873e-16 4.145e-18
5176.6540 1.900e-16 4.165e-18
5177.8522 1.886e-16 4.161e-18
5179.0503 1.922e-16 4.187e-18
5180.2485 1.938e-16 4.190e-18
5181.4466 1.893e-16 4.155e-18
5182.6448 1.876e-16 4.139e-18
5183.8429 1.908e-16 4.167e-18
5185.0411 1.904e-16 4.164e-18
5186.2392 1.871e-16 4.137e-18
5187.4374 1.920e-16 4.176e-18
5188.6355 1.936e-16 4.191e-18
5189.8337 1.874e-16 4.149e-18
5191.0318 1.888e-16 4.163e-18
5192.2300 1.911e-16 4.169e-18
5193.4281 1.872e-16 4.130e-18
5194.6263 1.825e-16 4.095e-18
5195.8244 1.829e-16 4.097e-18
5197.0226 1.863e-16 4.143e-18
5198.2207 1.916e-16 4.204e-18
5199.4189 1.922e-16 4.212e-18
5200.6170 1.895e-16 4.194e-18
5201.8152 1.925e-16 4.213e-18
5203.0134 1.902e-16 4.180e-18
5204.2115 1.842e-16 4.120e-18
5205.4097 1.876e-16 4.132e-18
5206.6078 1.824e-16 4.074e-18
5207.8060 1.773e-16 4.022e-18
5209.0041 1.854e-16 4.076e-18
5210.2023 1.896e-16 4.110e-18
5211.4004 1.877e-16 4.104e-18
5212.5986 1.864e-16 4.095e-18
5213.7967 1.869e-16 4.095e-18
5214.9949 1.841e-16 4.067e-18
5216.1930 1.833e-16 4.062e-18
5217.3912 1.875e-16 4.098e-18
5218.5893 1.911e-16 4.124e-18
5219.7875 1.916e-16 4.131e-18
5220.9856 1.881e-16 4.107e-18
5222.1838 1.863e-16 4.093e-18
5223.3819 1.886e-16 4.104e-18
5224.5801 1.921e-16 4.134e-18
5225.7782 1.905e-16 4.124e-18
5226.9764 1.837e-16 4.063e-18
5228.1745 1.903e-16 4.109e-18
5229.3727 1.917e-16 4.102e-18
5230.5708 1.880e-16 4.079e-18
5231.7690 1.908e-16 4.120e-18
5232.9671 1.857e-16 4.077e-18
5234.1653 1.810e-16 4.041e-18
5235.3634 1.837e-16 4.050e-18
5236.5616 1.825e-16 4.036e-18
5237.7597 1.848e-16 4.059e-18
5238.9579 1.874e-16 4.077e-18
5240.1560 1.866e-16 4.079e-18
5241.3542 1.881e-16 4.094e-18
5242.5523 1.863e-16 4.065e-18
5243.7505 1.858e-16 4.056e-18
5244.9486 1.845e-16 4.041e-18
5246.1468 1.875e-16 4.053e-18
5247.3449 1.848e-16 4.034e-18
5248.5431 1.827e-16 4.007e-18
5249.7412 1.923e-16 4.088e-18
5250.9394 1.847e-16 4.038e-18
5252.1375 1.849e-16 4.033e-18
5253.3357 1.866e-16 4.052e-18
5254.5338 1.823e-16 4.023e-18
5255.7320 1.873e-16 4.059e-18
5256.9301 1.901e-16 4.086e-18
5258.1283 1.911e-16 4.092e-18
5259.3264 1.897e-16 4.067e-18
5260.5246 1.820e-16 3.996e-18
5261.7227 1.836e-16 4.005e-18
5262.9209 1.843e-16 4.005e-18
5264.1190 1.799e-16 3.962e-18
5265.3172 1.770e-16 3.943e-18
5266.5153 1.780e-16 3.951e-18
5267.7135 1.786e-16 3.944e-18
5268.9116 1.799e-16 3.949e-18
5270.1098 1.779e-16 3.929e-18
5271.3079 1.790e-16 3.937e-18
5272.5061 1.857e-16 3.999e-18
5273.7042 1.829e-16 3.988e-18
5274.9024 1.820e-16 3.984e-18
5276.1005 1.791e-16 3.957e-18
5277.2987 1.831e-16 3.989e-18
5278.4968 1.877e-16 4.028e-18
5279.6950 1.902e-16 4.033e-18
5280.8931 1.820e-16 3.971e-18
5282.0913 1.830e-16 3.971e-18
5283.2894 1.826e-16 3.956e-18
5284.4876 1.832e-16 3.958e-18
5285.6857 1.797e-16 3.937e-18
5286.8839 1.813e-16 3.941e-18
5288.0820 1.821e-16 3.956e-18
5289.2802 1.841e-16 3.961e-18
5290.4783 1.801e-16 3.937e-18
5291.6765 1.832e-16 3.967e-18
5292.8746 1.850e-16 3.980e-18
5294.0728 1.770e-16 3.909e-18
5295.2709 1.808e-16 3.943e-18
5296.4691 1.865e-16 3.984e-18
5297.6672 1.767e-16 3.913e-18
5298.8654 1.839e-16 3.960e-18
5300.0635 1.875e-16 3.989e-18
5301.2617 1.818e-16 3.945e-18
5302.4598 1.760e-16 3.890e-18
5303.6580 1.758e-16 3.883e-18
5304.8561 1.776e-16 3.902e-18
5306.0543 1.747e-16 3.882e-18
5307.2524 1.721e-16 3.852e-18
5308.4506 1.715e-16 3.847e-18
5309.6487 1.757e-16 3.878e-18
5310.8469 1.732e-16 3.867e-18
5312.0450 1.747e-16 3.874e-18
5313.2432 1.760e-16 3.888e-18
5314.4413 1.753e-16 3.875e-18
5315.6395 1.806e-16 3.919e-18
5316.8376 1.843e-16 3.939e-18
5318.0358 1.797e-16 3.901e-18
5319.2339 1.806e-16 3.908e-18
5320.4321 1.857e-16 3.945e-18
5321.6302 1.859e-16 3.945e-18
5322.8284 1.855e-16 3.944e-18
5324.0265 1.867e-16 3.953e-18
5325.2247 1.859e-16 3.947e-18
5326.4228 1.793e-16 3.895e-18
5327.6210 1.855e-16 3.947e-18
5328.8191 1.836e-16 3.928e-18
5330.0173 1.805e-16 3.910e-18
5331.2154 1.786e-16 3.890e-18
5332.4136 1.876e-16 3.953e-18
5333.6117 1.881e-16 3.966e-18
5334.8099 1.851e-16 3.941e-18
5336.0080 1.846e-16 3.932e-18
5337.2062 1.819e-16 3.915e-18
5338.4043 1.886e-16 3.961e-18
5339.6025 1.869e-16 3.946e-18
5340.8006 1.836e-16 3.919e-18
5341.9988 1.849e-16 3.916e-18
5343.1969 1.839e-16 3.910e-18
5344.3951 1.883e-16 3.940e-18
5345.5932 1.870e-16 3.934e-18
5346.7914 1.839e-16 3.910e-18
5347.9895 1.769e-16 3.862e-18
5349.1877 1.811e-16 3.893e-18
5350.3858 1.787e-16 3.872e-18
5351.5840 1.769e-16 3.858e-18
5352.7821 1.792e-16 3.874e-18
5353.9803 1.831e-16 3.902e-18
5355.1784 1.852e-16 3.922e-18
5356.3766 1.833e-16 3.902e-18
5357.5747 1.846e-16 3.905e-18
5358.7729 1.779e-16 3.852e-18
5359.9710 1.813e-16 3.880e-18
5361.1692 1.849e-16 3.906e-18
5362.3674 1.831e-16 3.889e-18
5363.5655 1.846e-16 3.896e-18
5364.7637 1.800e-16 3.857e-18
5365.9618 1.789e-16 3.848e-18
5367.1600 1.792e-16 3.837e-18
5368.3581 1.787e-16 3.831e-18
5369.5563 1.895e-16 3.913e-18
5370.7544 1.889e-16 3.914e-18
5371.9526 1.872e-16 3.911e-18
5373.1507 1.863e-16 3.903e-18
5374.3489 1.863e-16 3.905e-18
5375.5470 1.829e-16 3.877e-18
5376.7452 1.811e-16 3.865e-18
5377.9433 1.847e-16 3.888e-18
5379.1415 1.819e-16 3.858e-18
5380.3396 1.827e-16 3.867e-18
5381.5378 1.846e-16 3.882e-18
5382.7359 1.850e-16 3.882e-18
5383.9341 1.876e-16 3.907e-18
5385.1322 1.910e-16 3.932e-18
5386.3304 1.841e-16 3.869e-18
5387.5285 1.780e-16 3.821e-18
5388.7267 1.837e-16 3.873e-18
5389.9248 1.844e-16 3.882e-18
5391.1230 1.845e-16 3.870e-18
5392.3211 1.835e-16 3.860e-18
5393.5193 1.861e-16 3.883e-18
5394.7174 1.810e-16 3.848e-18
5395.9156 1.742e-16 3.786e-18
5397.1137 1.768e-16 3.806e-18
5398.3119 1.759e-16 3.799e-18
5399.5100 1.763e-16 3.795e-18
5400.7082 1.822e-16 3.841e-18
5401.9063 1.845e-16 3.862e-18
5403.1045 1.765e-16 3.797e-18
5404.3026 1.692e-16 3.733e-18
5405.5008 1.716e-16 3.745e-18
5406.6989 1.770e-16 3.793e-18
5407.8971 1.798e-16 3.815e-18
5409.0952 1.818e-16 3.828e-18
5410.2934 1.820e-16 3.831e-18
5411.4915 1.851e-16 3.852e-18
5412.6897 1.791e-16 3.805e-18
5413.8878 1.752e-16 3.775e-18
5415.0860 1.708e-16 3.744e-18
5416.2841 1.733e-16 3.763e-18
5417.4823 1.812e-16 3.821e-18
5418.6804 1.785e-16 3.795e-18
5419.8786 1.773e-16 3.798e-18
5421.0767 1.749e-16 3.773e-18
5422.2749 1.809e-16 3.811e-18
5423.4730 1.809e-16 3.817e-18
5424.6712 1.826e-16 3.828e-18
5425.8693 1.802e-16 3.809e-18
5427.0675 1.772e-16 3.783e-18
5428.2656 1.802e-16 3.801e-18
5429.4638 1.803e-16 3.800e-18
5430.6619 1.746e-16 3.765e-18
5431.8601 1.764e-16 3.771e-18
5433.0582 1.769e-16 3.771e-18
5434.2564 1.733e-16 3.745e-18
5435.4545 1.783e-16 3.787e-18
5436.6527 1.741e-16 3.745e-18
5437.8508 1.752e-16 3.762e-18
5439.0490 1.833e-16 3.838e-18
5440.2471 1.792e-16 3.804e-18
5441.4453 1.744e-16 3.764e-18
5442.6434 1.809e-16 3.812e-18
5443.8416 1.825e-16 3.818e-18
5445.0397 1.801e-16 3.800e-18
5446.2379 1.780e-16 3.786e-18
5447.4360 1.777e-16 3.781e-18
5448.6342 1.728e-16 3.734e-18
5449.8323 1.804e-16 3.792e-18
5451.0305 1.841e-16 3.824e-18
5452.2286 1.735e-16 3.742e-18
5453.4268 1.731e-16 3.735e-18
5454.6249 1.750e-16 3.754e-18
5455.8231 1.787e-16 3.777e-18
5457.0212 1.823e-16 3.805e-18
5458.2194 1.832e-16 3.829e-18
5459.4175 1.805e-16 3.817e-18
5460.6157 1.803e-16 3.808e-18
5461.8138 1.818e-16 3.820e-18
5463.0120 1.810e-16 3.819e-18
5464.2101 1.777e-16 3.787e-18
5465.4083 1.715e-16 3.735e-18
5466.6064 1.741e-16 3.745e-18
5467.8046 1.761e-16 3.760e-18
5469.0027 1.753e-16 3.761e-18
5470.2009 1.799e-16 3.791e-18
5471.3990 1.782e-16 3.779e-18
5472.5972 1.757e-16 3.761e-18
5473.7953 1.801e-16 3.791e-18
5474.9935 1.820e-16 3.801e-18
5476.1916 1.789e-16 3.777e-18
5477.3898 1.801e-16 3.786e-18
5478.5879 1.797e-16 3.780e-18
5479.7861 1.801e-16 3.780e-18
5480.9842 1.820e-16 3.797e-18
5482.1824 1.795e-16 3.784e-18
5483.3805 1.798e-16 3.781e-18
5484.5787 1.762e-16 3.755e-18
5485.7768 1.723e-16 3.722e-18
5486.9750 1.692e-16 3.697e-18
5488.1731 1.755e-16 3.747e-18
5489.3713 1.763e-16 3.748e-18
5490.5694 1.717e-16 3.709e-18
5491.7676 1.744e-16 3.729e-18
5492.9657 1.722e-16 3.711e-18
5494.1639 1.737e-16 3.726e-18
5495.3620 1.737e-16 3.726e-18
5496.5602 1.706e-16 3.700e-18
5497.7583 1.746e-16 3.726e-18
5498.9565 1.796e-16 3.763e-18
5500.1546 1.784e-16 3.754e-18
5501.3528 1.777e-16 3.752e-18
5502.5509 1.748e-16 3.718e-18
5503.7491 1.805e-16 3.769e-18
5504.9472 1.785e-16 3.756e-18
5506.1454 1.765e-16 3.744e-18
5507.3435 1.752e-16 3.731e-18
5508.5417 1.756e-16 3.732e-18
5509.7398 1.749e-16 3.731e-18
5510.9380 1.761e-16 3.733e-18
5512.1361 1.776e-16 3.742e-18
5513.3343 1.771e-16 3.742e-18
5514.5324 1.792e-16 3.761e-18
5515.7306 1.769e-16 3.747e-18
5516.9287 1.733e-16 3.717e-18
5518.1269 1.779e-16 3.754e-18
5519.3250 1.793e-16 3.766e-18
5520.5232 1.797e-16 3.764e-18
5521.7213 1.782e-16 3.751e-18
5522.9195 1.802e-16 3.764e-18
5524.1177 1.804e-16 3.767e-18
5525.3158 1.806e-16 3.769e-18
5526.5140 1.771e-16 3.734e-18
5527.7121 1.732e-16 3.696e-18
5528.9103 1.823e-16 3.765e-18
5530.1084 1.851e-16 3.787e-18
5531.3066 1.784e-16 3.742e-18
5532.5047 1.762e-16 3.730e-18
5533.7029 1.805e-16 3.761e-18
5534.9010 1.792e-16 3.754e-18
5536.0992 1.722e-16 3.702e-18
5537.2973 1.768e-16 3.737e-18
5538.4955 1.747e-16 3.723e-18
5539.6936 1.694e-16 3.696e-18
5540.8918 1.734e-16 3.724e-18
5542.0899 1.719e-16 3.723e-18
5543.2881 1.752e-16 3.754e-18
5544.4862 1.793e-16 3.786e-18
5545.6844 1.787e-16 3.786e-18
5546.8825 1.783e-16 3.783e-18
5548.0807 1.734e-16 3.738e-18
5549.2788 1.777e-16 3.765e-18
5550.4770 1.800e-16 3.774e-18
5551.6751 1.796e-16 3.766e-18
5552.8733 1.769e-16 3.751e-18
5554.0714 1.770e-16 3.751e-18
5555.2696 1.803e-16 3.781e-18
5556.4677 1.831e-16 3.794e-18
5557.6659 1.814e-16 3.787e-18
5558.8640 1.806e-16 3.779e-18
5560.0622 1.779e-16 3.745e-18
5561.2603 1.856e-16 3.817e-18
5562.4585 1.855e-16 3.831e-18
5563.6566 1.794e-16 3.792e-18
5564.8548 1.789e-16 3.798e-18
5566.0529 1.795e-16 3.798e-18
5567.2511 1.785e-16 3.786e-18
5568.4492 1.776e-16 3.772e-18
5569.6474 1.769e-16 3.766e-18
5570.8455 1.803e-16 3.791e-18
5572.0437 1.872e-16 3.847e-18
5573.2418 1.784e-16 3.826e-18
5574.4400 1.609e-16 4.012e-18
5575.6381 1.642e-16 4.727e-18
5576.8363 1.752e-16 5.509e-18
5578.0344 1.839e-16 5.933e-18
5579.2326 1.837e-16 6.008e-18
5580.4307 1.859e-16 5.811e-18
5581.6289 1.821e-16 5.241e-18
5582.8270 1.687e-16 4.398e-18
5584.0252 1.703e-16 3.869e-18
5585.2233 1.774e-16 3.770e-18
5586.4215 1.745e-16 3.737e-18
5587.6196 1.757e-16 3.747e-18
5588.8178 1.804e-16 3.791e-18
5590.0159 1.773e-16 3.776e-18
5591.2141 1.746e-16 3.752e-18
5592.4122 1.746e-16 3.745e-18
5593.6104 1.769e-16 3.750e-18
5594.8085 1.795e-16 3.762e-18
5596.0067 1.764e-16 3.739e-18
5597.2048 1.755e-16 3.733e-18
5598.4030 1.731e-16 3.710e-18
5599.6011 1.726e-16 3.716e-18
5600.7993 1.802e-16 3.770e-18
5601.9974 1.788e-16 3.748e-18
5603.1956 1.798e-16 3.769e-18
5604.3937 1.783e-16 3.772e-18
5605.5919 1.764e-16 3.761e-18
5606.7900 1.737e-16 3.747e-18
5607.9882 1.759e-16 3.760e-18
5609.1863 1.805e-16 3.783e-18
5610.3845 1.804e-16 3.769e-18
5611.5826 1.743e-16 3.712e-18
5612.7808 1.724e-16 3.694e-18
5613.9789 1.783e-16 3.743e-18
5615.1771 1.784e-16 3.737e-18
5616.3752 1.872e-16 3.807e-18
5617.5734 1.816e-16 3.776e-18
5618.7715 1.821e-16 3.775e-18
5619.9697 1.789e-16 3.748e-18
5621.1678 1.777e-16 3.737e-18
5622.3660 1.832e-16 3.790e-18
5623.5641 1.828e-16 3.789e-18
5624.7623 1.783e-16 3.752e-18
5625.9604 1.759e-16 3.737e-18
5627.1586 1.784e-16 3.756e-18
5628.3567 1.893e-16 3.816e-18
5629.5549 1.856e-16 3.785e-18
5630.7530 1.760e-16 3.711e-18
5631.9512 1.794e-16 3.738e-18
5633.1493 1.799e-16 3.740e-18
5634.3475 1.819e-16 3.749e-18
5635.5456 1.803e-16 3.743e-18
5636.7438 1.777e-16 3.719e-18
5637.9419 1.778e-16 3.715e-18
5639.1401 1.723e-16 3.681e-18
5640.3382 1.740e-16 3.694e-18
5641.5364 1.764e-16 3.719e-18
5642.7345 1.797e-16 3.748e-18
5643.9327 1.798e-16 3.740e-18
5645.1308 1.799e-16 3.753e-18
5646.3290 1.750e-16 3.709e-18
5647.5271 1.754e-16 3.710e-18
5648.7253 1.813e-16 3.759e-18
5649.9234 1.765e-16 3.720e-18
5651.1216 1.737e-16 3.696e-18
5652.3197 1.770e-16 3.715e-18
5653.5179 1.804e-16 3.744e-18
5654.7160 1.860e-16 3.778e-18
5655.9142 1.811e-16 3.753e-18
5657.1123 1.790e-16 3.734e-18
5658.3105 1.761e-16 3.706e-18
5659.5086 1.762e-16 3.705e-18
5660.7068 1.780e-16 3.710e-18
5661.9049 1.778e-16 3.716e-18
5663.1031 1.748e-16 3.704e-18
5664.3012 1.809e-16 3.746e-18
5665.4994 1.781e-16 3.724e-18
5666.6975 1.782e-16 3.728e-18
5667.8957 1.797e-16 3.741e-18
5669.0938 1.792e-16 3.743e-18
5670.2920 1.825e-16 3.759e-18
5671.4901 1.782e-16 3.733e-18
5672.6883 1.758e-16 3.716e-18
5673.8864 1.768e-16 3.716e-18
5675.0846 1.762e-16 3.711e-18
5676.2827 1.789e-16 3.727e-18
5677.4809 1.794e-16 3.733e-18
5678.6790 1.817e-16 3.759e-18
5679.8772 1.810e-16 3.753e-18
5681.0753 1.822e-16 3.760e-18
5682.2735 1.817e-16 3.758e-18
5683.4717 1.791e-16 3.742e-18
5684.6698 1.817e-16 3.761e-18
5685.8680 1.799e-16 3.747e-18
5687.0661 1.821e-16 3.774e-18
5688.2643 1.779e-16 3.745e-18
5689.4624 1.765e-16 3.725e-18
5690.6606 1.783e-16 3.749e-18
5691.8587 1.796e-16 3.754e-18
5693.0569 1.757e-16 3.724e-18
5694.2550 1.749e-16 3.721e-18
5695.4532 1.775e-16 3.728e-18
5696.6513 1.754e-16 3.716e-18
5697.8495 1.784e-16 3.739e-18
5699.0476 1.791e-16 3.741e-18
5700.2458 1.810e-16 3.742e-18
5701.4439 1.812e-16 3.746e-18
5702.6421 1.760e-16 3.712e-18
5703.8402 1.763e-16 3.703e-18
5705.0384 1.780e-16 3.709e-18
5706.2365 1.758e-16 3.697e-18
5707.4347 1.766e-16 3.706e-18
5708.6328 1.785e-16 3.722e-18
5709.8310 1.756e-16 3.693e-18
5711.0291 1.756e-16 3.693e-18
5712.2273 1.748e-16 3.683e-18
5713.4254 1.786e-16 3.704e-18
5714.6236 1.769e-16 3.695e-18
5715.8217 1.762e-16 3.704e-18
5717.0199 1.766e-16 3.706e-18
5718.2180 1.764e-16 3.700e-18
5719.4162 1.778e-16 3.716e-18
5720.6143 1.752e-16 3.699e-18
5721.8125 1.761e-16 3.703e-18
5723.0106 1.767e-16 3.702e-18
5724.2088 1.761e-16 3.702e-18
5725.4069 1.729e-16 3.683e-18
5726.6051 1.683e-16 3.647e-18
5727.8032 1.714e-16 3.666e-18
5729.0014 1.705e-16 3.651e-18
5730.1995 1.706e-16 3.652e-18
5731.3977 1.734e-16 3.671e-18
5732.5958 1.749e-16 3.688e-18
5733.7940 1.705e-16 3.648e-18
5734.9921 1.681e-16 3.628e-18
5736.1903 1.698e-16 3.644e-18
5737.3884 1.743e-16 3.678e-18
5738.5866 1.836e-16 3.747e-18
5739.7847 1.786e-16 3.712e-18
5740.9829 1.756e-16 3.680e-18
5742.1810 1.743e-16 3.670e-18
5743.3792 1.770e-16 3.700e-18
5744.5773 1.715e-16 3.661e-18
5745.7755 1.738e-16 3.673e-18
5746.9736 1.745e-16 3.676e-18
5748.1718 1.742e-16 3.674e-18
5749.3699 1.714e-16 3.652e-18
5750.5681 1.746e-16 3.673e-18
5751.7662 1.715e-16 3.654e-18
5752.9644 1.696e-16 3.637e-18
5754.1625 1.717e-16 3.645e-18
5755.3607 1.675e-16 3.617e-18
5756.5588 1.757e-16 3.682e-18
5757.7570 1.749e-16 3.675e-18
5758.9551 1.645e-16 3.597e-18
5760.1533 1.684e-16 3.628e-18
5761.3514 1.732e-16 3.657e-18
5762.5496 1.726e-16 3.654e-18
5763.7477 1.753e-16 3.680e-18
5764.9459 1.751e-16 3.683e-18
5766.1440 1.691e-16 3.640e-18
5767.3422 1.695e-16 3.639e-18
5768.5403 1.735e-16 3.664e-18
5769.7385 1.695e-16 3.630e-18
5770.9366 1.703e-16 3.642e-18
5772.1348 1.727e-16 3.668e-18
5773.3329 1.696e-16 3.644e-18
5774.5311 1.715e-16 3.654e-18
5775.7292 1.672e-16 3.612e-18
5776.9274 1.678e-16 3.616e-18
5778.1255 1.737e-16 3.661e-18
5779.3237 1.718e-16 3.652e-18
5780.5218 1.738e-16 3.664e-18
5781.7200 1.717e-16 3.642e-18
5782.9181 1.712e-16 3.639e-18
5784.1163 1.748e-16 3.670e-18
5785.3144 1.724e-16 3.645e-18
5786.5126 1.697e-16 3.622e-18
5787.7107 1.713e-16 3.647e-18
5788.9089 1.719e-16 3.654e-18
5790.1070 1.719e-16 3.657e-18
5791.3052 1.702e-16 3.641e-18
5792.5033 1.714e-16 3.648e-18
5793.7015 1.723e-16 3.650e-18
5794.8996 1.699e-16 3.632e-18
5796.0978 1.735e-16 3.661e-18
5797.2959 1.732e-16 3.660e-18
5798.4941 1.740e-16 3.666e-18
5799.6922 1.744e-16 3.668e-18
5800.8904 1.702e-16 3.634e-18
5802.0885 1.713e-16 3.637e-18
5803.2867 1.706e-16 3.634e-18
5804.4848 1.672e-16 3.611e-18
5805.6830 1.685e-16 3.619e-18
5806.8811 1.697e-16 3.629e-18
5808.0793 1.680e-16 3.614e-18
5809.2774 1.695e-16 3.622e-18
5810.4756 1.734e-16 3.658e-18
5811.6737 1.714e-16 3.648e-18
5812.8719 1.691e-16 3.627e-18
5814.0700 1.717e-16 3.638e-18
5815.2682 1.735e-16 3.655e-18
5816.4663 1.761e-16 3.675e-18
5817.6645 1.743e-16 3.660e-18
5818.8626 1.740e-16 3.655e-18
5820.0608 1.692e-16 3.631e-18
5821.2589 1.727e-16 3.654e-18
5822.4571 1.770e-16 3.680e-18
5823.6552 1.811e-16 3.705e-18
5824.8534 1.767e-16 3.681e-18
5826.0515 1.773e-16 3.695e-18
5827.2497 1.767e-16 3.688e-18
5828.4478 1.748e-16 3.672e-18
5829.6460 1.719e-16 3.647e-18
5830.8441 1.725e-16 3.654e-18
5832.0423 1.791e-16 3.704e-18
5833.2404 1.834e-16 3.730e-18
5834.4386 1.775e-16 3.688e-18
5835.6367 1.735e-16 3.658e-18
5836.8349 1.734e-16 3.656e-18
5838.0330 1.721e-16 3.648e-18
5839.2312 1.719e-16 3.642e-18
5840.4293 1.738e-16 3.652e-18
5841.6275 1.781e-16 3.689e-18
5842.8257 1.765e-16 3.682e-18
5844.0238 1.751e-16 3.669e-18
5845.2220 1.771e-16 3.678e-18
5846.4201 1.740e-16 3.656e-18
5847.6183 1.732e-16 3.652e-18
5848.8164 1.772e-16 3.678e-18
5850.0146 1.740e-16 3.656e-18
5851.2127 1.793e-16 3.691e-18
5852.4109 1.754e-16 3.667e-18
5853.6090 1.743e-16 3.661e-18
5854.8072 1.704e-16 3.621e-18
5856.0053 1.706e-16 3.625e-18
5857.2035 1.710e-16 3.629e-18
5858.4016 1.722e-16 3.636e-18
5859.5998 1.762e-16 3.661e-18
5860.7979 1.795e-16 3.686e-18
5861.9961 1.731e-16 3.644e-18
5863.1942 1.745e-16 3.651e-18
5864.3924 1.753e-16 3.698e-18
5865.5905 1.742e-16 3.711e-18
5866.7887 1.783e-16 3.770e-18
5867.9868 1.726e-16 3.755e-18
5869.1850 1.680e-16 3.719e-18
5870.3831 1.745e-16 3.750e-18
5871.5813 1.724e-16 3.712e-18
5872.7794 1.726e-16 3.691e-18
5873.9776 1.771e-16 3.703e-18
5875.1757 1.712e-16 3.652e-18
5876.3739 1.719e-16 3.650e-18
5877.5720 1.727e-16 3.652e-18
5878.7702 1.675e-16 3.610e-18
5879.9683 1.715e-16 3.638e-18
5881.1665 1.714e-16 3.630e-18
5882.3646 1.712e-16 3.619e-18
5883.5628 1.720e-16 3.628e-18
5884.7609 1.742e-16 3.657e-18
5885.9591 1.740e-16 3.673e-18
5887.1572 1.723e-16 3.747e-18
5888.3554 1.646e-16 3.910e-18
5889.5535 1.652e-16 4.149e-18
5890.7517 1.657e-16 4.261e-18
5891.9498 1.616e-16 4.250e-18
5893.1480 1.688e-16 4.250e-18
5894.3461 1.679e-16 4.166e-18
5895.5443 1.681e-16 4.070e-18
5896.7424 1.692e-16 4.021e-18
5897.9406 1.694e-16 3.999e-18
5899.1387 1.639e-16 3.920e-18
5900.3369 1.649e-16 3.819e-18
5901.5350 1.648e-16 3.665e-18
5902.7332 1.632e-16 3.574e-18
5903.9313 1.701e-16 3.615e-18
5905.1295 1.712e-16 3.628e-18
5906.3276 1.703e-16 3.634e-18
5907.5258 1.705e-16 3.641e-18
5908.7239 1.653e-16 3.594e-18
5909.9221 1.640e-16 3.571e-18
5911.1202 1.627e-16 3.552e-18
5912.3184 1.634e-16 3.557e-18
5913.5165 1.651e-16 3.591e-18
5914.7147 1.643e-16 3.610e-18
5915.9128 1.660e-16 3.642e-18
5917.1110 1.708e-16 3.690e-18
5918.3091 1.671e-16 3.653e-18
5919.5073 1.644e-16 3.611e-18
5920.7054 1.665e-16 3.585e-18
5921.9036 1.669e-16 3.565e-18
5923.1017 1.588e-16 3.511e-18
5924.2999 1.659e-16 3.583e-18
5925.4980 1.693e-16 3.612e-18
5926.6962 1.648e-16 3.583e-18
5927.8943 1.674e-16 3.597e-18
5929.0925 1.692e-16 3.597e-18
5930.2906 1.639e-16 3.556e-18
5931.4888 1.609e-16 3.563e-18
5932.6869 1.615e-16 3.598e-18
5933.8851 1.672e-16 3.649e-18
5935.0832 1.676e-16 3.653e-18
5936.2814 1.672e-16 3.639e-18
5937.4795 1.663e-16 3.600e-18
5938.6777 1.651e-16 3.551e-18
5939.8758 1.706e-16 3.565e-18
5941.0740 1.692e-16 3.556e-18
5942.2721 1.638e-16 3.522e-18
5943.4703 1.636e-16 3.515e-18
5944.6684 1.610e-16 3.508e-18
5945.8666 1.615e-16 3.518e-18
5947.0647 1.624e-16 3.536e-18
5948.2629 1.618e-16 3.531e-18
5949.4610 1.617e-16 3.525e-18
5950.6592 1.624e-16 3.519e-18
5951.8573 1.609e-16 3.520e-18
5953.0555 1.611e-16 3.557e-18
5954.2536 1.605e-16 3.566e-18
5955.4518 1.679e-16 3.621e-18
5956.6499 1.650e-16 3.587e-18
5957.8481 1.655e-16 3.568e-18
5959.0462 1.648e-16 3.530e-18
5960.2444 1.621e-16 3.488e-18
5961.4425 1.597e-16 3.464e-18
5962.6407 1.595e-16 3.460e-18
5963.8388 1.628e-16 3.484e-18
5965.0370 1.586e-16 3.455e-18
5966.2351 1.590e-16 3.452e-18
5967.4333 1.595e-16 3.461e-18
5968.6314 1.625e-16 3.492e-18
5969.8296 1.634e-16 3.501e-18
5971.0277 1.606e-16 3.485e-18
5972.2259 1.628e-16 3.499e-18
5973.4240 1.620e-16 3.490e-18
5974.6222 1.626e-16 3.492e-18
5975.8203 1.627e-16 3.499e-18
5977.0185 1.605e-16 3.497e-18
5978.2166 1.559e-16 3.464e-18
5979.4148 1.572e-16 3.473e-18
5980.6129 1.576e-16 3.468e-18
5981.8111 1.563e-16 3.440e-18
5983.0092 1.617e-16 3.469e-18
5984.2074 1.560e-16 3.419e-18
5985.4055 1.527e-16 3.388e-18
5986.6037 1.551e-16 3.403e-18
5987.8018 1.587e-16 3.421e-18
5989.0000 1.562e-16 3.395e-18
5990.1981 1.512e-16 3.366e-18
5991.3963 1.554e-16 3.396e-18
5992.5944 1.582e-16 3.417e-18
5993.7926 1.568e-16 3.404e-18
5994.9907 1.548e-16 3.386e-18
5996.1889 1.558e-16 3.400e-18
5997.3870 1.617e-16 3.451e-18
5998.5852 1.601e-16 3.438e-18
5999.7833 1.520e-16 3.374e-18
6000.9815 1.537e-16 3.382e-18
6002.1796 1.560e-16 3.397e-18
6003.3778 1.502e-16 3.361e-18
6004.5760 1.508e-16 3.369e-18
6005.7741 1.538e-16 3.386e-18
6006.9723 1.514e-16 3.364e-18
6008.1704 1.562e-16 3.389e-18
6009.3686 1.582e-16 3.395e-18
6010.5667 1.541e-16 3.352e-18
6011.7649 1.530e-16 3.340e-18
6012.9630 1.501e-16 3.313e-18
6014.1612 1.546e-16 3.348e-18
6015.3593 1.532e-16 3.338e-18
6016.5575 1.518e-16 3.330e-18
6017.7556 1.571e-16 3.368e-18
6018.9538 1.526e-16 3.332e-18
6020.1519 1.532e-16 3.337e-18
6021.3501 1.564e-16 3.357e-18
6022.5482 1.547e-16 3.341e-18
6023.7464 1.528e-16 3.323e-18
6024.9445 1.556e-16 3.346e-18
6026.1427 1.552e-16 3.333e-18
6027.3408 1.550e-16 3.340e-18
6028.5390 1.530e-16 3.332e-18
6029.7371 1.531e-16 3.326e-18
6030.9353 1.546e-16 3.338e-18
6032.1334 1.525e-16 3.322e-18
6033.3316 1.506e-16 3.306e-18
6034.5297 1.503e-16 3.307e-18
6035.7279 1.563e-16 3.353e-18
6036.9260 1.566e-16 3.345e-18
6038.1242 1.561e-16 3.345e-18
6039.3223 1.555e-16 3.332e-18
6040.5205 1.557e-16 3.331e-18
6041.7186 1.592e-16 3.354e-18
6042.9168 1.507e-16 3.289e-18
6044.1149 1.530e-16 3.304e-18
6045.3131 1.533e-16 3.298e-18
6046.5112 1.513e-16 3.282e-18
6047.7094 1.526e-16 3.291e-18
6048.9075 1.566e-16 3.322e-18
6050.1057 1.528e-16 3.289e-18
6051.3038 1.534e-16 3.291e-18
6052.5020 1.490e-16 3.255e-18
6053.7001 1.470e-16 3.235e-18
6054.8983 1.517e-16 3.270e-18
6056.0964 1.533e-16 3.287e-18
6057.2946 1.533e-16 3.287e-18
6058.4927 1.498e-16 3.255e-18
6059.6909 1.489e-16 3.244e-18
6060.8890 1.524e-16 3.276e-18
6062.0872 1.490e-16 3.251e-18
6063.2853 1.463e-16 3.227e-18
6064.4835 1.488e-16 3.250e-18
6065.6816 1.478e-16 3.240e-18
6066.8798 1.448e-16 3.213e-18
6068.0779 1.462e-16 3.219e-18
6069.2761 1.406e-16 3.183e-18
6070.4742 1.496e-16 3.250e-18
6071.6724 1.510e-16 3.255e-18
6072.8705 1.529e-16 3.263e-18
6074.0687 1.471e-16 3.215e-18
6075.2668 1.496e-16 3.237e-18
6076.4650 1.487e-16 3.227e-18
6077.6631 1.504e-16 3.236e-18
6078.8613 1.507e-16 3.238e-18
6080.0594 1.504e-16 3.234e-18
6081.2576 1.509e-16 3.233e-18
6082.4557 1.484e-16 3.210e-18
6083.6539 1.496e-16 3.219e-18
6084.8520 1.498e-16 3.221e-18
6086.0502 1.469e-16 3.199e-18
6087.2483 1.462e-16 3.192e-18
6088.4465 1.479e-16 3.203e-18
6089.6446 1.494e-16 3.215e-18
6090.8428 1.490e-16 3.209e-18
6092.0409 1.495e-16 3.213e-18
6093.2391 1.501e-16 3.216e-18
6094.4372 1.467e-16 3.191e-18
6095.6354 1.462e-16 3.185e-18
6096.8335 1.510e-16 3.230e-18
6098.0317 1.513e-16 3.231e-18
6099.2298 1.501e-16 3.222e-18
6100.4280 1.513e-16 3.228e-18
6101.6261 1.483e-16 3.204e-18
6102.8243 1.510e-16 3.221e-18
6104.0224 1.507e-16 3.219e-18
6105.2206 1.488e-16 3.205e-18
6106.4187 1.501e-16 3.211e-18
6107.6169 1.445e-16 3.167e-18
6108.8150 1.459e-16 3.172e-18
6110.0132 1.484e-16 3.192e-18
6111.2113 1.435e-16 3.150e-18
6112.4095 1.454e-16 3.162e-18
6113.6076 1.501e-16 3.198e-18
6114.8058 1.501e-16 3.194e-18
6116.0039 1.461e-16 3.158e-18
6117.2021 1.436e-16 3.138e-18
6118.4002 1.480e-16 3.170e-18
6119.5984 1.487e-16 3.174e-18
6120.7965 1.468e-16 3.156e-18
6121.9947 1.460e-16 3.150e-18
6123.1928 1.414e-16 3.110e-18
6124.3910 1.447e-16 3.132e-18
6125.5891 1.471e-16 3.148e-18
6126.7873 1.494e-16 3.175e-18
6127.9854 1.462e-16 3.149e-18
6129.1836 1.475e-16 3.156e-18
6130.3817 1.480e-16 3.159e-18
6131.5799 1.477e-16 3.152e-18
6132.7780 1.495e-16 3.170e-18
6133.9762 1.479e-16 3.154e-18
6135.1743 1.455e-16 3.143e-18
6136.3725 1.436e-16 3.129e-18
6137.5706 1.415e-16 3.118e-18
6138.7688 1.438e-16 3.144e-18
6139.9669 1.412e-16 3.125e-18
6141.1651 1.401e-16 3.116e-18
6142.3632 1.422e-16 3.130e-18
6143.5614 1.405e-16 3.119e-18
6144.7595 1.411e-16 3.127e-18
6145.9577 1.444e-16 3.151e-18
6147.1558 1.484e-16 3.176e-18
6148.3540 1.471e-16 3.157e-18
6149.5521 1.431e-16 3.119e-18
6150.7503 1.476e-16 3.146e-18
6151.9484 1.466e-16 3.139e-18
6153.1466 1.449e-16 3.132e-18
6154.3447 1.444e-16 3.123e-18
6155.5429 1.418e-16 3.097e-18
6156.7410 1.381e-16 3.076e-18
6157.9392 1.419e-16 3.103e-18
6159.1373 1.447e-16 3.126e-18
6160.3355 1.453e-16 3.128e-18
6161.5336 1.404e-16 3.088e-18
6162.7318 1.431e-16 3.105e-18
6163.9300 1.433e-16 3.105e-18
6165.1281 1.410e-16 3.081e-18
6166.3263 1.367e-16 3.046e-18
6167.5244 1.389e-16 3.067e-18
6168.7226 1.443e-16 3.113e-18
6169.9207 1.423e-16 3.114e-18
6171.1189 1.412e-16 3.128e-18
6172.3170 1.416e-16 3.136e-18
6173.5152 1.404e-16 3.122e-18
6174.7133 1.429e-16 3.134e-18
6175.9115 1.464e-16 3.144e-18
6177.1096 1.453e-16 3.126e-18
6178.3078 1.384e-16 3.067e-18
6179.5059 1.383e-16 3.061e-18
6180.7041 1.390e-16 3.056e-18
6181.9022 1.344e-16 3.016e-18
6183.1004 1.404e-16 3.063e-18
6184.2985 1.383e-16 3.048e-18
6185.4967 1.364e-16 3.036e-18
6186.6948 1.404e-16 3.067e-18
6187.8930 1.426e-16 3.081e-18
6189.0911 1.430e-16 3.084e-18
6190.2893 1.431e-16 3.078e-18
6191.4874 1.411e-16 3.064e-18
6192.6856 1.396e-16 3.062e-18
6193.8837 1.377e-16 3.050e-18
6195.0819 1.385e-16 3.052e-18
6196.2800 1.410e-16 3.071e-18
6197.4782 1.409e-16 3.067e-18
6198.6763 1.389e-16 3.043e-18
6199.8745 1.369e-16 3.025e-18
6201.0726 1.403e-16 3.067e-18
6202.2708 1.432e-16 3.106e-18
6203.4689 1.464e-16 3.141e-18
6204.6671 1.401e-16 3.095e-18
6205.8652 1.377e-16 3.070e-18
6207.0634 1.437e-16 3.103e-18
6208.2615 1.411e-16 3.067e-18
6209.4597 1.399e-16 3.045e-18
6210.6578 1.372e-16 3.025e-18
6211.8560 1.417e-16 3.060e-18
6213.0541 1.359e-16 3.026e-18
6214.2523 1.377e-16 3.041e-18
6215.4504 1.407e-16 3.064e-18
6216.6486 1.433e-16 3.086e-18
6217.8467 1.475e-16 3.116e-18
6219.0449 1.413e-16 3.064e-18
6220.2430 1.390e-16 3.056e-18
6221.4412 1.417e-16 3.104e-18
6222.6393 1.382e-16 3.091e-18
6223.8375 1.376e-16 3.080e-18
6225.0356 1.370e-16 3.068e-18
6226.2338 1.363e-16 3.046e-18
6227.4319 1.374e-16 3.030e-18
6228.6301 1.403e-16 3.040e-18
6229.8282 1.398e-16 3.045e-18
6231.0264 1.389e-16 3.040e-18
6232.2245 1.402e-16 3.059e-18
6233.4227 1.408e-16 3.106e-18
6234.6208 1.403e-16 3.164e-18
6235.8190 1.387e-16 3.204e-18
6237.0171 1.442e-16 3.272e-18
6238.2153 1.447e-16 3.281e-18
6239.4134 1.464e-16 3.274e-18
6240.6116 1.428e-16 3.205e-18
6241.8097 1.416e-16 3.145e-18
6243.0079 1.465e-16 3.173e-18
6244.2060 1.409e-16 3.126e-18
6245.4042 1.366e-16 3.079e-18
6246.6023 1.384e-16 3.084e-18
6247.8005 1.360e-16 3.047e-18
6248.9986 1.376e-16 3.041e-18
6250.1968 1.408e-16 3.057e-18
6251.3949 1.387e-16 3.036e-18
6252.5931 1.385e-16 3.035e-18
6253.7912 1.404e-16 3.041e-18
6254.9894 1.398e-16 3.047e-18
6256.1875 1.430e-16 3.113e-18
6257.3857 1.449e-16 3.204e-18
6258.5838 1.381e-16 3.198e-18
6259.7820 1.375e-16 3.202e-18
6260.9801 1.425e-16 3.226e-18
6262.1783 1.406e-16 3.186e-18
6263.3764 1.301e-16 3.042e-18
6264.5746 1.349e-16 3.059e-18
6265.7727 1.400e-16 3.103e-18
6266.9709 1.369e-16 3.087e-18
6268.1690 1.342e-16 3.072e-18
6269.3672 1.370e-16 3.079e-18
6270.5653 1.386e-16 3.066e-18
6271.7635 1.358e-16 3.026e-18
6272.9616 1.370e-16 3.026e-18
6274.1598 1.393e-16 3.048e-18
6275.3579 1.375e-16 3.045e-18
6276.5561 1.379e-16 3.055e-18
6277.7542 1.362e-16 3.045e-18
6278.9524 1.326e-16 3.021e-18
6280.1505 1.337e-16 3.018e-18
6281.3487 1.359e-16 3.025e-18
6282.5468 1.353e-16 3.018e-18
6283.7450 1.324e-16 2.984e-18
6284.9431 1.377e-16 3.040e-18
6286.1413 1.359e-16 3.075e-18
6287.3394 1.324e-16 3.106e-18
6288.5376 1.366e-16 3.154e-18
6289.7357 1.365e-16 3.154e-18
6290.9339 1.389e-16 3.161e-18
6292.1320 1.423e-16 3.142e-18
6293.3302 1.371e-16 3.056e-18
6294.5283 1.352e-16 3.020e-18
6295.7265 1.379e-16 3.056e-18
6296.9246 1.337e-16 3.070e-18
6298.1228 1.347e-16 3.270e-18
6299.3209 1.433e-16 3.720e-18
